#f[Hz]      a[ms]    b[ms]
10.41      1.000     98.00
30.07      1.000     33.00
50.00      1.000     19.50
100.00     0.800     10.00
150.00     0.800     6.80
200.10     0.700     5.00
300.00     0.500     3.30
500.00     0.400     2.00
750.00     0.280     1.30
1000.00    0.200     1.00
1500.00    0.160     0.66
2001.00    0.110     0.49
3005.00    0.100     0.32
5003.00    0.045     0.20
7500.00    0.030     0.13
10000.00   0.030     0.10